Voltage [V],Current [uA]
-0.050038896,48.578484
-0.051039672,52.242308
-0.052040452,52.890524
-0.053041232,53.181748
-0.054042008,53.341452
-0.055042784,53.416612
-0.056043564,53.46358
-0.057044344,53.482368
-0.05804512,53.482372
-0.059045896,53.491764
-0.060046676,53.491764
-0.061047452,53.491764
-0.062048232,53.482372
-0.063049012,53.482368
-0.064049788,53.477672
-0.065050564,53.472976
-0.06605134,53.472972
-0.06705212,53.491764
-0.068052896,53.46358
-0.06905368,53.491764
-0.070054456,53.472972
-0.071055232,53.454184
-0.072056008,53.454184
-0.073056784,53.454184
-0.074057568,53.458881
-0.075058344,53.463576
-0.076059128,53.46358
-0.077059904,53.454184
-0.07806068,53.435396
-0.079061456,53.484717
-0.080062232,53.519948
-0.081063008,53.52934
-0.082063784,53.52934
-0.083064568,53.538736
-0.084065344,53.52934
-0.085066128,53.531688
-0.086066904,53.52934
-0.08706768,53.529336
-0.088068456,53.529336
-0.089069232,53.519944
-0.090070008,53.510552
-0.091070792,53.510552
-0.092071568,53.519944
-0.093072344,53.519948
-0.094073128,53.519948
-0.095073904,53.52934
-0.09607468,53.519944
-0.097075456,53.52934
-0.09807624,53.519948
-0.099077016,53.510552
-0.100077792,53.529336
-0.101078568,53.519944
-0.102079344,53.510552
-0.10308012,53.510552
-0.104080904,53.510552
-0.105081688,53.510552
-0.106082464,53.510552
-0.10708324,53.510552
-0.108084016,53.510552
-0.109084792,53.501156
-0.110085568,53.501156
-0.111086344,53.491764
-0.112087128,53.498808
-0.113087904,53.501156
-0.114088688,53.501156
-0.115089464,53.510552
-0.11609024,53.510552
-0.117091016,53.510552
-0.118091792,53.510552
-0.119092576,53.510552
-0.120093352,53.510552
-0.121094128,53.510552
-0.122094904,53.503506
-0.12309568,53.501156
-0.124096464,53.491764
-0.125097248,53.482372
-0.126098024,53.501156
-0.1270988,53.491764
-0.128099576,53.52934
-0.129100352,53.510552
-0.130101128,53.461229
-0.131101904,53.397816
-0.13210268,53.407208
-0.133103464,53.407212
-0.13410424,53.416608
-0.135105,53.416612
-0.136105,53.416608
-0.137106,53.416608
-0.138107,53.407212
-0.139108,53.416608
-0.140108,53.426004
-0.141109,53.416608
-0.14211,53.426004
-0.143111,53.407212
-0.144112,53.397816
-0.145112,53.426004
-0.146113,53.407208
-0.147114,53.435396
-0.148115,53.416608
-0.149115,53.397816
-0.150116,53.435396
-0.151117,53.416612
-0.152118,53.397816
-0.153119,53.407212
-0.154119,53.39782
-0.15512,53.416612
-0.156121,53.416612
-0.157122,53.41661
-0.158122,53.416608
-0.159123,53.416608
-0.160124,53.416608
-0.161125,53.414259
-0.162126,53.416608
-0.163126,53.407212
-0.164127,53.416612
-0.165128,53.426004
-0.166129,53.426004
-0.167129,53.416612
-0.16813,53.426004
-0.169131,53.407208
-0.170132,53.416608
-0.171133,53.426004
-0.172133,53.416612
-0.173134,53.407212
-0.174135,53.435396
-0.17513600000000001,53.416612
-0.176136,53.435396
-0.177137,53.444792
-0.178138,53.426004
-0.179139,53.426004
-0.18014,53.426004
-0.18114,53.428352
-0.182141,53.431287
-0.183142,53.435396
-0.184143,53.435396
-0.185143,53.426004
-0.186144,53.435396
-0.187145,53.416608
-0.188146,53.426004
-0.189147,53.454184
-0.190147,53.426004
-0.191148,53.435396
-0.192149,53.433048
-0.19315,53.435396
-0.19415,53.435396
-0.195151,53.435396
-0.196152,53.426004
-0.197153,53.435396
-0.198154,53.444792
-0.199154,53.426004
-0.200155,53.454184
-0.201156,53.444792
-0.202157,53.435396
-0.203157,53.454184
-0.204158,53.46358
-0.205159,53.444792
-0.20616,53.444792
-0.207161,53.435396
-0.208161,53.444792
-0.209162,53.454184
-0.210163,53.454184
-0.211164,53.444792
-0.212164,53.472972
-0.213165,53.454184
-0.214166,53.472976
-0.215167,53.46358
-0.216168,53.444792
-0.217168,53.454184
-0.218169,53.46358
-0.21917,53.463576
-0.220171,53.472972
-0.221171,53.46358
-0.222172,53.472972
-0.223173,53.46358
-0.224174,53.472972
-0.225175,53.491764
-0.226175,53.472972
-0.227176,53.482372
-0.228177,53.463576
-0.229178,53.472976
-0.230178,53.482372
-0.231179,53.480023
-0.23218,53.482372
-0.233181,53.482372
-0.234182,53.491764
-0.235182,53.491764
-0.236183,53.491764
-0.237184,53.491764
-0.238185,53.491764
-0.239185,53.491764
-0.240186,53.491764
-0.241187,53.491764
-0.242188,53.472972
-0.243189,53.52934
-0.244189,53.501156
-0.24519,53.482372
-0.246191,53.519944
-0.247192,53.501156
-0.248192,53.491764
-0.249193,53.501156
-0.250194,53.491764
-0.251195,53.510552
-0.252196,53.510552
-0.253196,53.510552
-0.254197,53.510552
-0.255198,53.510552
-0.256199,53.519944
-0.257199,53.519944
-0.2582,53.519944
-0.259201,53.510552
-0.260202,53.52934
-0.261203,53.510552
-0.262203,53.52934
-0.263204,53.52934
-0.264205,53.538736
-0.265206,53.548132
-0.266206,53.548132
-0.267207,53.557524
-0.268208,53.557524
-0.269209,53.548132
-0.27021,53.555176
-0.27121,53.557524
-0.272211,53.557524
-0.273212,53.557524
-0.274213,53.557524
-0.275213,53.557524
-0.276214,53.566916
-0.277215,53.566916
-0.278216,53.566916
-0.279217,53.557524
-0.280217,53.566916
-0.281218,53.555176
-0.282219,53.548132
-0.28322,53.548132
-0.28422,53.548132
-0.285221,53.557524
-0.286222,53.576312
-0.287223,53.557524
-0.288224,53.611542
-0.289224,53.651468
-0.290225,53.660864
-0.291226,53.679652
-0.292227,53.670256
-0.293227,53.689044
-0.294228,53.689044
-0.295229,53.698436
-0.29623,53.698436
-0.297231,53.69844
-0.298231,53.698436
-0.299232,53.707836
-0.300233,53.698436
-0.301234,53.707836
-0.302234,53.717232
-0.303235,53.736016
-0.304236,53.754804
-0.305237,53.726624
-0.306238,53.717232
-0.307238,53.736016
-0.308239,53.754804
-0.30924,53.745412
-0.310241,53.736016
-0.311241,53.754804
-0.312242,53.773596
-0.313243,53.773596
-0.314244,53.782992
-0.315245,53.792384
-0.316245,53.792384
-0.317246,53.792384
-0.318247,53.792384
-0.319248,53.792384
-0.320248,53.811172
-0.321249,53.801776
-0.32225,53.811172
-0.323251,53.820564
-0.324252,53.820564
-0.325252,53.82996
-0.326253,53.839356
-0.327254,53.839356
-0.328255,53.848752
-0.329255,53.867536
-0.330256,53.858144
-0.331257,53.86754
-0.332258,53.914512
-0.333259,53.905116
-0.334259,53.923904
-0.33526,53.923904
-0.336261,53.942692
-0.337262,53.942696
-0.338262,53.898071
-0.339263,53.848752
-0.340264,53.858144
-0.341265,53.876936
-0.342266,53.876932
-0.343266,53.886328
-0.344267,53.905116
-0.345268,53.923904
-0.346269,53.923904
-0.347269,53.930951
-0.34827,53.933296
-0.349271,53.9427
-0.35027200000000003,53.96148
-0.351273,53.980272
-0.352273,53.961484
-0.353274,53.999056
-0.354275,53.989664
-0.355276,54.008456
-0.356276,54.027244
-0.357277,54.055428
-0.358278,54.046032
-0.359279,54.064824
-0.36028,54.074216
-0.36128,54.083612
-0.362281,54.093004
-0.363282,54.1024
-0.364283,54.111792
-0.365283,54.13058
-0.366284,54.158764
-0.367285,54.158764
-0.368286,54.177556
-0.369287,54.19634
-0.370287,54.215132
-0.371288,54.24332
-0.372289,54.224524
-0.37329,54.243316
-0.37429,54.262104
-0.375291,54.2715
-0.376292,54.280892
-0.377293,54.290284
-0.378294,54.33726
-0.379294,54.346656
-0.380295,54.356048
-0.381296,54.37484
-0.382297,54.374836
-0.383297,54.37484
-0.384298,54.412412
-0.385299,54.431204
-0.3863,54.431204
-0.387301,54.459384
-0.388301,54.459384
-0.389302,54.478176
-0.390303,54.515752
-0.391304,54.496968
-0.392304,54.515752
-0.393305,54.54394
-0.394306,54.562728
-0.395307,54.553328
-0.396308,54.6003
-0.397308,54.590904
-0.398309,54.609696
-0.39931,54.628488
-0.400311,54.628488
-0.401311,54.647276
-0.402312,54.666064
-0.403313,54.67546
-0.404314,54.67546
-0.405315,54.703644
-0.406315,54.713036
-0.407316,54.731824
-0.408317,54.74122
-0.409318,54.760008
-0.410318,54.769404
-0.411319,54.788188
-0.41232,54.80698
-0.413321,54.816372
-0.414322,54.825772
-0.415322,54.816372
-0.416323,54.835168
-0.417324,54.835164
-0.418325,54.846908
-0.419325,54.863348
-0.420326,54.853952
-0.421327,54.891528
-0.422328,54.900924
-0.423329,54.891532
-0.424329,54.900924
-0.42533,54.91032
-0.426331,54.929108
-0.427332,54.929108
-0.428332,54.929108
-0.429333,54.9385
-0.430334,54.947892
-0.431335,54.9385
-0.432336,54.957292
-0.433336,54.957292
-0.434337,54.961989
-0.435338,54.966688
-0.436339,54.966684
-0.437339,54.966688
-0.43834,54.97608
-0.439341,54.966688
-0.440342,54.985472
-0.441343,54.985472
-0.442343,54.985472
-0.443344,54.97608
-0.444345,54.976076
-0.445346,54.994868
-0.446346,54.994868
-0.447347,54.994868
-0.448348,54.994868
-0.449349,54.985472
-0.45035,54.994868
-0.45135,54.97608
-0.452351,54.966688
-0.453352,54.97608
-0.454353,54.966684
-0.455353,54.947896
-0.456354,54.966684
-0.457355,54.947892
-0.458356,54.947892
-0.459357,54.947892
-0.460357,54.947896
-0.461358,54.919712
-0.462359,54.9385
-0.46336,54.919712
-0.46436,54.900924
-0.465361,54.900924
-0.466362,54.896226
-0.467363,54.891528
-0.468364,54.891528
-0.469364,54.882132
-0.470365,54.863348
-0.471366,54.844556
-0.472367,54.863348
-0.473367,54.853952
-0.474368,54.844552
-0.475369,54.835164
-0.47637,54.816372
-0.477371,54.816372
-0.478371,54.797588
-0.479372,54.797588
-0.480373,54.788192
-0.481374,54.7694
-0.482374,54.769404
-0.483375,54.750612
-0.484376,54.750612
-0.485377,54.750612
-0.486378,54.731828
-0.487378,54.722428
-0.488379,54.722428
-0.48938,54.708338
-0.490381,54.694248
-0.491381,54.694248
-0.492382,54.666068
-0.493383,54.666064
-0.494384,54.656672
-0.495385,54.63788
-0.496385,54.63788
-0.497386,54.682503
-0.498387,54.722428
-0.499388,54.731824
-0.500388,54.713036
-0.501389,54.722428
-0.50239,54.713032
-0.503391,54.713036
-0.504392,54.694248
-0.505392,54.684852
-0.506393,54.67546
-0.507394,54.675456
-0.508395,54.666064
-0.509395,54.647272
-0.510396,54.656668
-0.511397,54.628488
-0.512398,54.63788
-0.513399,54.628488
-0.514399,54.63788
-0.5154,54.619092
-0.516401,54.619092
-0.517402,54.607349
-0.518402,54.600304
-0.519403,54.590908
-0.520404,54.581512
-0.521405,54.590904
-0.522406,54.581512
-0.523406,54.590904
-0.524407,54.57212
-0.525408,54.57212
-0.526409,54.553328
-0.527409,54.553332
-0.52841,54.57212
-0.529411,54.57212
-0.530412,54.553332
-0.531413,54.562728
-0.532413,54.53454
-0.533414,54.543936
-0.534415,54.541589
-0.535416,54.54394
-0.536416,54.54394
-0.537417,54.54394
-0.538418,54.54394
-0.539419,54.534544
-0.54042,54.53454
-0.54142,54.525144
-0.542421,54.525144
-0.543422,54.520448
-0.544423,54.515752
-0.545423,54.515752
-0.546424,54.464083
-0.547425,54.412416
-0.548426,54.412412
-0.549427,54.412416
-0.550427,54.412414
-0.551428,54.412416
-0.552429,54.4171105
-0.55343,54.421808
-0.55443,54.421804
-0.555431,54.421807
-0.556432,54.421808
-0.557433,54.421808
-0.558434,54.421808
-0.559434,54.431204
-0.560435,54.431204
-0.561436,54.431204
-0.562437,54.440596
-0.563437,54.449992
-0.564438,54.431204
-0.565439,54.421808
-0.56644,54.449992
-0.567441,54.4406
-0.568441,54.459384
-0.569442,54.4406
-0.570443,54.459384
-0.571444,54.459384
-0.572444,54.459384
-0.573445,54.459384
-0.574446,54.459384
-0.575447,54.464083
-0.576448,54.46878
-0.577448,54.468784
-0.578449,54.46878
-0.57945,54.487572
-0.580451,54.496968
-0.581451,54.478176
-0.582452,54.50636
-0.583453,54.478176
-0.584454,54.496964
-0.585455,54.50636
-0.586455,54.496968
-0.587456,54.496968
-0.588457,54.50636
-0.589458,54.50636
-0.590458,54.515752
-0.591459,54.525144
-0.59246,54.53454
-0.593461,54.543936
-0.594462,54.553328
-0.595462,54.562728
-0.596463,54.543936
-0.597464,54.562728
-0.598465,54.553328
-0.599465,54.562728
-0.600466,54.57212
-0.601467,54.581516
-0.602468,54.57212
-0.603469,54.57212
-0.604469,54.57212
-0.60547,54.57212
-0.606471,54.600304
-0.607472,54.6097
-0.608472,54.609696
-0.609473,54.616744
-0.610474,54.616156
-0.611475,54.619092
-0.612476,54.619092
-0.613476,54.628488
-0.614477,54.619092
-0.615478,54.647272
-0.616479,54.63788
-0.617479,54.656668
-0.61848,54.63788
-0.619481,54.666064
-0.620482,54.656668
-0.621483,54.684852
-0.622483,54.666064
-0.623484,54.67546
-0.624485,54.67546
-0.625486,54.694248
-0.626486,54.684852
-0.627487,54.694248
-0.628488,54.70364
-0.629489,54.713032
-0.63049,54.722428
-0.63149,54.724778
-0.632491,54.731824
-0.633492,54.731828
-0.634493,54.731824
-0.635493,54.741216
-0.636494,54.760008
-0.637495,54.750612
-0.638496,54.75766
-0.639497,54.760012
-0.640497,54.760008
-0.641498,54.769404
-0.642499,54.7694
-0.6435,54.788192
-0.6445,54.769404
-0.645501,54.788188
-0.646502,54.788192
-0.647503,54.788188
-0.648504,54.797588
-0.649504,54.816372
-0.650505,54.80698
-0.651506,54.825768
-0.652507,54.863348
-0.653507,54.835164
-0.654508,54.853948
-0.655509,54.863348
-0.65651,54.863348
-0.657511,54.87274
-0.658511,54.882132
-0.659512,54.87274
-0.660513,54.891532
-0.661514,54.882132
-0.662514,54.910316
-0.663515,54.91032
-0.664516,54.919712
-0.665517,54.919712
-0.666518,54.938504
-0.667518,54.947896
-0.668519,54.947896
-0.66952,54.957292
-0.670521,54.97608
-0.671521,54.97608
-0.672522,54.957296
-0.673523,54.947896
-0.674524,54.966688
-0.675525,54.985472
-0.676525,54.994872
-0.677526,54.985472
-0.678527,55.004264
-0.679528,55.013656
-0.680528,54.994872
-0.681529,55.00426
-0.68253,55.013656
-0.683531,55.023056
-0.684532,55.032448
-0.685532,55.023056
-0.686533,55.04184
-0.687534,55.060632
-0.688535,55.032444
-0.689535,55.051232
-0.690536,55.079416
-0.691537,55.060628
-0.692538,55.04184
-0.693539,55.051232
-0.694539,55.04184
-0.69554,55.051232
-0.696541,55.060632
-0.697542,55.070024
-0.698542,55.07002
-0.699543,55.088816
