Voltage [V],Current [uA]
-0.050038896,46.877164
-0.051039672,50.382212
-0.052040452,51.199524
-0.053041232,51.537724
-0.054042008,51.706824
-0.055042784,51.78198
-0.056043564,51.828952
-0.057044344,51.81956
-0.05804512,51.84774
-0.059045896,51.838348
-0.060046676,51.828952
-0.061047452,51.828952
-0.062048232,51.826604
-0.063049012,51.828952
-0.064049788,51.81956
-0.065050564,51.810164
-0.06605134,51.810168
-0.06705212,51.800768
-0.068052896,51.81956
-0.06905368,51.810168
-0.070054456,51.800768
-0.071055232,51.791372
-0.072056008,51.800764
-0.073056784,51.798417
-0.074057568,51.800764
-0.075058344,51.800768
-0.076059128,51.791372
-0.077059904,51.78198
-0.07806068,51.763192
-0.079061456,51.810163
-0.080062232,51.838348
-0.081063008,51.857132
-0.082063784,51.866528
-0.083064568,51.84774
-0.084065344,51.84774
-0.085066128,51.84774
-0.086066904,51.84774
-0.08706768,51.84774
-0.088068456,51.84774
-0.089069232,51.838346
-0.090070008,51.828952
-0.091070792,51.828952
-0.092071568,51.828952
-0.093072344,51.828952
-0.094073128,51.828952
-0.095073904,51.838348
-0.09607468,51.81956
-0.097075456,51.828952
-0.09807624,51.838348
-0.099077016,51.838348
-0.100077792,51.828952
-0.101078568,51.838348
-0.102079344,51.828952
-0.10308012,51.81956
-0.104080904,51.828952
-0.105081688,51.810164
-0.106082464,51.800768
-0.10708324,51.810164
-0.108084016,51.810164
-0.109084792,51.807814
-0.110085568,51.8048775
-0.111086344,51.800764
-0.112087128,51.800768
-0.113087904,51.800767
-0.114088688,51.800768
-0.115089464,51.800768
-0.11609024,51.800768
-0.117091016,51.800768
-0.118091792,51.800768
-0.119092576,51.800768
-0.120093352,51.810164
-0.121094128,51.810164
-0.122094904,51.810164
-0.12309568,51.810168
-0.124096464,51.81956
-0.125097248,51.791372
-0.126098024,51.81956
-0.1270988,51.810164
-0.128099576,51.838348
-0.129100352,51.772586
-0.130101128,51.71622
-0.131101904,51.725612
-0.13210268,51.735008
-0.133103464,51.735008
-0.13410424,51.725612
-0.135105,51.735004
-0.136105,51.725612
-0.137106,51.72796
-0.138107,51.725612
-0.139108,51.725612
-0.140108,51.725612
-0.141109,51.725612
-0.14211,51.725612
-0.143111,51.72796
-0.144112,51.730896
-0.145112,51.735004
-0.146113,51.735008
-0.147114,51.725612
-0.148115,51.725612
-0.149115,51.725612
-0.150116,51.735004
-0.151117,51.732657
-0.152118,51.735008
-0.153119,51.735004
-0.154119,51.725612
-0.15512,51.735008
-0.156121,51.725612
-0.157122,51.725612
-0.158122,51.735008
-0.159123,51.7444
-0.160124,51.735004
-0.161125,51.725612
-0.162126,51.735004
-0.163126,51.735008
-0.164127,51.737356
-0.165128,51.735008
-0.166129,51.744404
-0.167129,51.735004
-0.16813,51.7538
-0.169131,51.735004
-0.170132,51.744404
-0.171133,51.753796
-0.172133,51.744404
-0.173134,51.763192
-0.174135,51.744404
-0.17513600000000001,51.7538
-0.176136,51.7538
-0.177137,51.7538
-0.178138,51.7538
-0.179139,51.7538
-0.18014,51.7538
-0.18114,51.758496
-0.182141,51.763192
-0.183142,51.763192
-0.184143,51.763192
-0.185143,51.763192
-0.186144,51.763192
-0.187145,51.763192
-0.188146,51.760843
-0.189147,51.76260475
-0.190147,51.763192
-0.191148,51.763192
-0.192149,51.763192
-0.19315,51.753796
-0.19415,51.7538
-0.195151,51.763192
-0.196152,51.763192
-0.197153,51.753796
-0.198154,51.763192
-0.199154,51.78198
-0.200155,51.772584
-0.201156,51.78198
-0.202157,51.779631
-0.203157,51.78198
-0.204158,51.78198
-0.205159,51.78198
-0.20616,51.78198
-0.207161,51.78198
-0.208161,51.772584
-0.209162,51.772584
-0.210163,51.772584
-0.211164,51.791372
-0.212164,51.772584
-0.213165,51.791372
-0.214166,51.78198
-0.215167,51.791372
-0.216168,51.791372
-0.217168,51.800764
-0.218169,51.810164
-0.21917,51.810168
-0.220171,51.800764
-0.221171,51.81956
-0.222172,51.791372
-0.223173,51.810168
-0.224174,51.810164
-0.225175,51.810164
-0.226175,51.81956
-0.227176,51.828952
-0.228177,51.81956
-0.229178,51.81956
-0.230178,51.81956
-0.231179,51.828952
-0.23218,51.84774
-0.233181,51.838348
-0.234182,51.81956
-0.235182,51.838348
-0.236183,51.828952
-0.237184,51.838348
-0.238185,51.828952
-0.239185,51.857132
-0.240186,51.84774
-0.241187,51.857136
-0.242188,51.838348
-0.243189,51.857132
-0.244189,51.838348
-0.24519,51.857136
-0.246191,51.875928
-0.247192,51.866528
-0.248192,51.866532
-0.249193,51.866528
-0.250194,51.864181
-0.251195,51.866528
-0.252196,51.87064025
-0.253196,51.875924
-0.254197,51.875928
-0.255198,51.875928
-0.256199,51.875928
-0.257199,51.875928
-0.2582,51.88532
-0.259201,51.88532
-0.260202,51.894712
-0.261203,51.894712
-0.262203,51.894712
-0.263204,51.904108
-0.264205,51.904108
-0.265206,51.922896
-0.266206,51.9135
-0.267207,51.932292
-0.268208,51.941688
-0.269209,51.932292
-0.27021,51.922896
-0.27121,51.932292
-0.272211,51.922896
-0.273212,51.941688
-0.274213,51.922896
-0.275213,51.95108
-0.276214,51.941688
-0.277215,51.932288
-0.278216,51.960472
-0.279217,51.941688
-0.280217,51.960472
-0.281218,51.95108
-0.282219,51.941688
-0.28322,51.95108
-0.28422,51.95108
-0.285221,51.941688
-0.286222,51.95108
-0.287223,51.941688
-0.288224,51.998054
-0.289224,52.045028
-0.290225,52.05442
-0.291226,52.05442
-0.292227,52.073208
-0.293227,52.073208
-0.294228,52.073208
-0.295229,52.091996
-0.29623,52.101392
-0.297231,52.091996
-0.298231,52.101392
-0.299232,52.101392
-0.300233,52.106089
-0.301234,52.110784
-0.302234,52.110788
-0.303235,52.110784
-0.304236,52.129572
-0.305237,52.110788
-0.306238,52.129572
-0.307238,52.14836
-0.308239,52.138968
-0.30924,52.138968
-0.310241,52.157752
-0.311241,52.167152
-0.312242,52.167152
-0.313243,52.174198
-0.314244,52.176548
-0.315245,52.18594
-0.316245,52.21412
-0.317246,52.195332
-0.318247,52.204728
-0.319248,52.211774
-0.320248,52.22352
-0.321249,52.223516
-0.32225,52.232912
-0.323251,52.242308
-0.324252,52.261092
-0.325252,52.261092
-0.326253,52.261092
-0.327254,52.261092
-0.328255,52.261092
-0.329255,52.279884
-0.330256,52.28928
-0.331257,52.308068
-0.332258,52.326856
-0.333259,52.336252
-0.334259,52.345644
-0.33526,52.35504
-0.336261,52.35504
-0.337262,52.38322
-0.338262,52.322158
-0.339263,52.270488
-0.340264,52.279884
-0.341265,52.298676
-0.342266,52.31746
-0.343266,52.326852
-0.344267,52.336252
-0.345268,52.35504
-0.346269,52.35504
-0.347269,52.35504
-0.34827,52.38322
-0.349271,52.402012
-0.35027200000000003,52.411408
-0.351273,52.411408
-0.352273,52.411408
-0.353274,52.45838
-0.354275,52.448984
-0.355276,52.477168
-0.356276,52.51474
-0.357277,52.51474
-0.358278,52.52414
-0.359279,52.542928
-0.36028,52.55232
-0.36128,52.5805
-0.362281,52.589896
-0.363282,52.608688
-0.364283,52.61808
-0.365283,52.636872
-0.366284,52.646268
-0.367285,52.68384
-0.368286,52.68384
-0.369287,52.693236
-0.370287,52.712028
-0.371288,52.749604
-0.372289,52.759
-0.37329,52.759
-0.37429,52.78718
-0.375291,52.796576
-0.376292,52.82476
-0.377293,52.843548
-0.378294,52.862336
-0.379294,52.881124
-0.380295,52.918704
-0.381296,52.9187
-0.382297,52.946884
-0.383297,52.956284
-0.384298,52.975068
-0.385299,52.99386
-0.3863,53.003252
-0.387301,53.022044
-0.388301,53.050224
-0.389302,53.069012
-0.390303,53.078408
-0.391304,53.097196
-0.392304,53.125384
-0.393305,53.144168
-0.394306,53.172348
-0.395307,53.181744
-0.396308,53.200536
-0.397308,53.209928
-0.398309,53.22872
-0.39931,53.247508
-0.400311,53.256904
-0.401311,53.275688
-0.402312,53.29448
-0.403313,53.313268
-0.404314,53.341448
-0.405315,53.350844
-0.406315,53.369636
-0.407316,53.388424
-0.408317,53.397816
-0.409318,53.397816
-0.410318,53.416608
-0.411319,53.435396
-0.41232,53.444792
-0.413321,53.454184
-0.414322,53.454188
-0.415322,53.501156
-0.416323,53.501156
-0.417324,53.510552
-0.418325,53.510552
-0.419325,53.52934
-0.420326,53.557524
-0.421327,53.548132
-0.422328,53.557524
-0.423329,53.566916
-0.424329,53.585712
-0.42533,53.576312
-0.426331,53.604492
-0.427332,53.623284
-0.428332,53.623284
-0.429333,53.623284
-0.430334,53.642072
-0.431335,53.642072
-0.432336,53.651464
-0.433336,53.66086
-0.434337,53.658512
-0.435338,53.66086
-0.436339,53.660864
-0.437339,53.665559
-0.43834,53.670256
-0.439341,53.670256
-0.440342,53.670256
-0.441343,53.670256
-0.442343,53.670256
-0.443344,53.670256
-0.444345,53.670256
-0.445346,53.670256
-0.446346,53.660864
-0.447347,53.670256
-0.448348,53.679652
-0.449349,53.670256
-0.45035,53.670256
-0.45135,53.670256
-0.452351,53.660864
-0.453352,53.651472
-0.454353,53.642072
-0.455353,53.642072
-0.456354,53.642072
-0.457355,53.623284
-0.458356,53.632676
-0.459357,53.623284
-0.460357,53.613892
-0.461358,53.613892
-0.462359,53.595104
-0.46336,53.595104
-0.46436,53.576312
-0.465361,53.566916
-0.466362,53.566916
-0.467363,53.557524
-0.468364,53.557524
-0.469364,53.52934
-0.470365,53.548132
-0.471366,53.519948
-0.472367,53.501156
-0.473367,53.519944
-0.474368,53.501156
-0.475369,53.46358
-0.47637,53.472976
-0.477371,53.444792
-0.478371,53.435396
-0.479372,53.426004
-0.480373,53.407212
-0.481374,53.416612
-0.482374,53.388424
-0.483375,53.388424
-0.484376,53.379028
-0.485377,53.36024
-0.486378,53.350848
-0.487378,53.341448
-0.488379,53.332056
-0.48938,53.313268
-0.490381,53.303876
-0.491381,53.285088
-0.492382,53.285088
-0.493383,53.275688
-0.494384,53.266296
-0.495385,53.266296
-0.496385,53.266296
-0.497386,53.296828
-0.498387,53.322664
-0.499388,53.332056
-0.500388,53.322664
-0.501389,53.303876
-0.50239,53.303876
-0.503391,53.275692
-0.504392,53.275688
-0.505392,53.266296
-0.506393,53.266296
-0.507394,53.247508
-0.508395,53.247508
-0.509395,53.247508
-0.510396,53.219328
-0.511397,53.209928
-0.512398,53.209928
-0.513399,53.200536
-0.514399,53.191144
-0.5154,53.181744
-0.516401,53.181748
-0.517402,53.162956
-0.518402,53.172356
-0.519403,53.16296
-0.520404,53.16296
-0.521405,53.144168
-0.522406,53.134776
-0.523406,53.144168
-0.524407,53.144168
-0.525408,53.144168
-0.526409,53.134776
-0.527409,53.12538
-0.52841,53.134776
-0.529411,53.106588
-0.530412,53.097196
-0.531413,53.106588
-0.532413,53.115984
-0.533414,53.106592
-0.534415,53.0972
-0.535416,53.097196
-0.536416,53.078408
-0.537417,53.106588
-0.538418,53.078408
-0.539419,53.087804
-0.54042,53.087804
-0.54142,53.097196
-0.542421,53.097196
-0.543422,53.097197
-0.544423,53.097196
-0.545423,53.0972
-0.546424,53.078408
-0.547425,52.975072
-0.548426,52.965676
-0.549427,52.99386
-0.550427,52.99386
-0.551428,52.984464
-0.552429,52.984464
-0.55343,52.975068
-0.55443,52.975068
-0.555431,52.984464
-0.556432,52.984464
-0.557433,52.984464
-0.558434,52.984464
-0.559434,52.975068
-0.560435,52.99386
-0.561436,52.984464
-0.562437,52.993864
-0.563437,52.993856
-0.564438,53.003252
-0.565439,52.99386
-0.56644,53.003256
-0.567441,52.99386
-0.568441,53.012644
-0.569442,53.022044
-0.570443,53.012648
-0.571444,53.031436
-0.572444,53.040828
-0.573445,53.022044
-0.574446,53.031436
-0.575447,53.050224
-0.576448,53.040828
-0.577448,53.050224
-0.578449,53.050224
-0.57945,53.059624
-0.580451,53.050224
-0.581451,53.040828
-0.582452,53.059619
-0.583453,53.069016
-0.584454,53.078408
-0.585455,53.087804
-0.586455,53.097196
-0.587456,53.087804
-0.588457,53.106592
-0.589458,53.097196
-0.590458,53.125384
-0.591459,53.125384
-0.59246,53.120685
-0.593461,53.115984
-0.594462,53.115988
-0.595462,53.134776
-0.596463,53.144168
-0.597464,53.134776
-0.598465,53.153568
-0.599465,53.153564
-0.600466,53.16296
-0.601467,53.172356
-0.602468,53.172352
-0.603469,53.172352
-0.604469,53.179397
-0.60547,53.181744
-0.606471,53.19114
-0.607472,53.181748
-0.608472,53.191144
-0.609473,53.181748
-0.610474,53.209928
-0.611475,53.228716
-0.612476,53.228716
-0.613476,53.235763
-0.614477,53.23517675
-0.615478,53.238112
-0.616479,53.238116
-0.617479,53.266296
-0.61848,53.238116
-0.619481,53.256904
-0.620482,53.266296
-0.621483,53.266296
-0.622483,53.275691
-0.623484,53.285088
-0.624485,53.285084
-0.625486,53.29448
-0.626486,53.303876
-0.627487,53.322664
-0.628488,53.322664
-0.629489,53.322664
-0.63049,53.332056
-0.63149,53.322664
-0.632491,53.350852
-0.633492,53.36024
-0.634493,53.360244
-0.635493,53.379028
-0.636494,53.369632
-0.637495,53.379028
-0.638496,53.386075
-0.639497,53.39782
-0.640497,53.39782
-0.641498,53.397816
-0.642499,53.407212
-0.6435,53.426004
-0.6445,53.407212
-0.645501,53.416612
-0.646502,53.416608
-0.647503,53.426
-0.648504,53.444792
-0.649504,53.46358
-0.650505,53.454184
-0.651506,53.472972
-0.652507,53.472972
-0.653507,53.484716
-0.654508,53.491764
-0.655509,53.501156
-0.65651,53.503506
-0.657511,53.510552
-0.658511,53.510552
-0.659512,53.52934
-0.660513,53.519948
-0.661514,53.538736
-0.662514,53.548128
-0.663515,53.557524
-0.664516,53.557524
-0.665517,53.566916
-0.666518,53.576312
-0.667518,53.585704
-0.668519,53.604492
-0.66952,53.604492
-0.670521,53.5951
-0.671521,53.604492
-0.672522,53.613892
-0.673523,53.623284
-0.674524,53.642072
-0.675525,53.642072
-0.676525,53.660864
-0.677526,53.660864
-0.678527,53.679652
-0.679528,53.679652
-0.680528,53.689044
-0.681529,53.69844
-0.68253,53.707836
-0.683531,53.707836
-0.684532,53.72662
-0.685532,53.717228
-0.686533,53.736016
-0.687534,53.745412
-0.688535,53.736016
-0.689535,53.754804
-0.690536,53.754808
-0.691537,53.754806
-0.692538,53.754808
-0.693539,53.754804
-0.694539,53.7642
-0.69554,53.754808
-0.696541,53.7642
-0.697542,53.773596
-0.698542,53.782992
-0.699543,53.782992
