Voltage [V],Current [uA]
-0.050038896,-0.629428
-0.051039672,-0.535481
-0.052040452,35.38874
-0.053041232,81.374384
-0.054042008,75.596808
-0.055042784,71.16264
-0.056043564,67.545808
-0.057044344,64.746264
-0.05804512,62.57616
-0.059045896,60.847584
-0.060046676,59.532372
-0.061047452,58.452012
-0.062048232,57.606512
-0.063049012,56.901932
-0.064049788,56.375844
-0.065050564,55.915524
-0.06605134,55.483376
-0.06705212,55.192152
-0.068052896,54.929108
-0.06905368,54.74122
-0.070054456,54.534544
-0.071055232,54.431204
-0.072056008,54.299684
-0.073056784,54.215132
-0.074057568,54.1024
-0.075058344,54.046032
-0.076059128,53.980272
-0.077059904,53.923904
-0.07806068,53.858144
-0.079061456,53.811172
-0.080062232,53.876936
-0.081063008,53.820568
-0.082063784,53.839356
-0.083064568,53.820564
-0.084065344,53.792384
-0.085066128,53.792384
-0.086066904,53.7642
-0.08706768,53.764196
-0.088068456,53.754804
-0.089069232,53.754804
-0.090070008,53.726624
-0.091070792,53.7642
-0.092071568,53.736016
-0.093072344,53.736016
-0.094073128,53.707836
-0.095073904,53.736016
-0.09607468,53.717228
-0.097075456,53.698436
-0.09807624,53.726624
-0.099077016,53.764196
-0.100077792,53.726624
-0.101078568,53.745412
-0.102079344,53.707836
-0.10308012,53.717228
-0.104080904,53.726624
-0.105081688,53.726624
-0.106082464,53.717232
-0.10708324,53.689044
-0.108084016,53.707836
-0.109084792,53.69844
-0.110085568,53.696091
-0.111086344,53.689044
-0.112087128,53.689044
-0.113087904,53.686696
-0.114088688,53.688457
-0.115089464,53.689044
-0.11609024,53.689044
-0.117091016,53.707836
-0.118091792,53.707836
-0.119092576,53.679652
-0.120093352,53.698436
-0.121094128,53.670256
-0.122094904,53.679652
-0.12309568,53.66086
-0.124096464,53.689044
-0.125097248,53.670256
-0.126098024,53.66086
-0.1270988,53.660864
-0.128099576,53.670256
-0.129100352,53.61389
-0.130101128,53.566916
-0.131101904,53.557524
-0.13210268,53.548132
-0.133103464,53.557524
-0.13410424,53.566916
-0.135105,53.548132
-0.136105,53.538732
-0.137106,53.548132
-0.138107,53.548132
-0.139108,53.548132
-0.140108,53.585708
-0.141109,53.595104
-0.14211,53.576312
-0.143111,53.557524
-0.144112,53.557524
-0.145112,53.557524
-0.146113,53.557524
-0.147114,53.557524
-0.148115,53.566916
-0.149115,53.576312
-0.150116,53.576312
-0.151117,53.623284
-0.152118,53.604496
-0.153119,53.632676
-0.154119,53.613892
-0.15512,53.604496
-0.156121,53.613892
-0.157122,53.604496
-0.158122,53.604496
-0.159123,53.5951
-0.160124,53.566916
-0.161125,53.595104
-0.162126,53.585704
-0.163126,53.588056
-0.164127,53.585708
-0.165128,53.585708
-0.166129,53.58101
-0.167129,53.576312
-0.16813,53.576312
-0.169131,53.576312
-0.170132,53.578661
-0.171133,53.576312
-0.172133,53.585708
-0.173134,53.595104
-0.174135,53.576312
-0.17513600000000001,53.566916
-0.176136,53.566916
-0.177137,53.566916
-0.178138,53.585708
-0.179139,53.5951
-0.18014,53.613892
-0.18114,53.595104
-0.182141,53.566916
-0.183142,53.595104
-0.184143,53.585708
-0.185143,53.566916
-0.186144,53.576312
-0.187145,53.585712
-0.188146,53.576312
-0.189147,53.583359
-0.190147,53.585704
-0.191148,53.585708
-0.192149,53.59745
-0.19315,53.613892
-0.19415,53.604496
-0.195151,53.623284
-0.196152,53.604496
-0.197153,53.63268
-0.198154,53.623284
-0.199154,53.632676
-0.200155,53.642072
-0.201156,53.623284
-0.202157,53.613892
-0.203157,53.623284
-0.204158,53.651468
-0.205159,53.660864
-0.20616,53.642072
-0.207161,53.632676
-0.208161,53.623284
-0.209162,53.637375
-0.210163,53.651468
-0.211164,53.642072
-0.212164,53.670256
-0.213165,53.660864
-0.214166,53.642074
-0.215167,53.613892
-0.216168,53.623284
-0.217168,53.632676
-0.218169,53.642072
-0.21917,53.625633
-0.220171,53.613892
-0.221171,53.613892
-0.222172,53.613892
-0.223173,53.61624
-0.224174,53.613892
-0.225175,53.623284
-0.226175,53.618588
-0.227176,53.613892
-0.228177,53.623284
-0.229178,53.642072
-0.230178,53.651468
-0.231179,53.642072
-0.23218,53.642072
-0.233181,53.642072
-0.234182,53.642072
-0.235182,53.642072
-0.236183,53.63268
-0.237184,53.632678
-0.238185,53.623284
-0.239185,53.632676
-0.240186,53.639725
-0.241187,53.651468
-0.242188,53.651472
-0.243189,53.651464
-0.244189,53.66556
-0.24519,53.679652
-0.246191,53.679652
-0.247192,53.66086
-0.248192,53.670256
-0.249193,53.69844
-0.250194,53.717232
-0.251195,53.707832
-0.252196,53.670256
-0.253196,53.689044
-0.254197,53.679652
-0.255198,53.679652
-0.256199,53.679651
-0.257199,53.670256
-0.2582,53.689044
-0.259201,53.670256
-0.260202,53.679652
-0.261203,53.698436
-0.262203,53.670256
-0.263204,53.717232
-0.264205,53.726624
-0.265206,53.736016
-0.266206,53.707832
-0.267207,53.726624
-0.268208,53.707836
-0.269209,53.736016
-0.27021,53.698436
-0.27121,53.689044
-0.272211,53.689048
-0.273212,53.691394
-0.274213,53.689044
-0.275213,53.69844
-0.276214,53.679652
-0.277215,53.707836
-0.278216,53.679652
-0.279217,53.717232
-0.280217,53.689044
-0.281218,53.689044
-0.282219,53.672606
-0.28322,53.660864
-0.28422,53.651472
-0.285221,53.663212
-0.286222,53.670256
-0.287223,53.670256
-0.288224,53.670256
-0.289224,53.717228
-0.290225,53.754804
-0.291226,53.773596
-0.292227,53.782992
-0.293227,53.792384
-0.294228,53.785339
-0.295229,53.782992
-0.29623,53.782988
-0.297231,53.820564
-0.298231,53.801776
-0.299232,53.773596
-0.300233,53.782992
-0.301234,53.801776
-0.302234,53.792384
-0.303235,53.801776
-0.304236,53.773596
-0.305237,53.811172
-0.306238,53.792384
-0.307238,53.801776
-0.308239,53.792384
-0.30924,53.792384
-0.310241,53.792384
-0.311241,53.782992
-0.312242,53.792384
-0.313243,53.820568
-0.314244,53.811172
-0.315245,53.820564
-0.316245,53.801776
-0.317246,53.811172
-0.318247,53.820568
-0.319248,53.792384
-0.320248,53.7642
-0.321249,53.848752
-0.32225,53.811172
-0.323251,53.839356
-0.324252,53.848752
-0.325252,53.820568
-0.326253,53.811172
-0.327254,53.829964
-0.328255,53.839356
-0.329255,53.820564
-0.330256,53.829964
-0.331257,53.858144
-0.332258,53.886324
-0.333259,53.895724
-0.334259,53.89572
-0.33526,53.902768
-0.336261,53.905116
-0.337262,53.914512
-0.338262,53.905116
-0.339263,53.862841
-0.340264,53.811172
-0.341265,53.820564
-0.342266,53.811172
-0.343266,53.820564
-0.344267,53.820568
-0.345268,53.825263
-0.346269,53.82996
-0.347269,53.82996
-0.34827,53.848752
-0.349271,53.876932
-0.35027200000000003,53.89572
-0.351273,53.876936
-0.352273,53.867536
-0.353274,53.895724
-0.354275,53.905116
-0.355276,53.914512
-0.356276,53.942696
-0.357277,53.923904
-0.358278,53.905116
-0.359279,53.905116
-0.36028,53.905116
-0.36128,53.933296
-0.362281,53.933296
-0.363282,53.933296
-0.364283,53.933296
-0.365283,53.930948
-0.366284,53.933296
-0.367285,53.923904
-0.368286,53.961484
-0.369287,53.980272
-0.370287,53.989664
-0.371288,53.989664
-0.372289,54.017852
-0.37329,54.00846
-0.37429,54.03664
-0.375291,54.03664
-0.376292,54.038988
-0.377293,54.041923
-0.378294,54.046032
-0.379294,54.046032
-0.380295,54.055428
-0.381296,54.083608
-0.382297,54.064816
-0.383297,54.07422
-0.384298,54.111796
-0.385299,54.111796
-0.3863,54.121184
-0.387301,54.130584
-0.388301,54.11884
-0.389302,54.111796
-0.390303,54.111796
-0.391304,54.125888
-0.392304,54.13998
-0.393305,54.13998
-0.394306,54.177552
-0.395307,54.149372
-0.396308,54.186948
-0.397308,54.186944
-0.398309,54.179902
-0.39931,54.177556
-0.400311,54.16816
-0.401311,54.177556
-0.402312,54.196343
-0.403313,54.215132
-0.404314,54.224524
-0.405315,54.243316
-0.406315,54.290284
-0.407316,54.233924
-0.408317,54.280892
-0.409318,54.33726
-0.410318,54.280892
-0.411319,54.29968
-0.41232,54.233924
-0.413321,54.29968
-0.414322,54.327864
-0.415322,54.327864
-0.416323,54.33491
-0.417324,54.33726
-0.418325,54.346652
-0.419325,54.346652
-0.420326,54.33726
-0.421327,54.33726
-0.422328,54.36544
-0.423329,54.346656
-0.424329,54.327864
-0.42533,54.356048
-0.426331,54.37484
-0.427332,54.356048
-0.428332,54.374836
-0.429333,54.346652
-0.430334,54.356048
-0.431335,54.346652
-0.432336,54.384232
-0.433336,54.365444
-0.434337,54.356048
-0.435338,54.356044
-0.436339,54.365444
-0.437339,54.360745
-0.43834,54.356048
-0.439341,54.365444
-0.440342,54.374836
-0.441343,54.384228
-0.442343,54.374836
-0.443344,54.374836
-0.444345,54.365444
-0.445346,54.365444
-0.446346,54.370142
-0.447347,54.37484
-0.448348,54.37484
-0.449349,54.384232
-0.45035,54.384232
-0.45135,54.40302
-0.452351,54.403024
-0.453352,54.393624
-0.454353,54.37484
-0.455353,54.365444
-0.456354,54.37484
-0.457355,54.37484
-0.458356,54.365444
-0.459357,54.365444
-0.460357,54.353701
-0.461358,54.346656
-0.462359,54.33726
-0.46336,54.36544
-0.46436,54.327864
-0.465361,54.346652
-0.466362,54.346652
-0.467363,54.346652
-0.468364,54.346652
-0.469364,54.346652
-0.470365,54.318472
-0.471366,54.346656
-0.472367,54.327864
-0.473367,54.309076
-0.474368,54.33726
-0.475369,54.309076
-0.47637,54.30908
-0.477371,54.318472
-0.478371,54.309076
-0.479372,54.29968
-0.480373,54.290284
-0.481374,54.30908
-0.482374,54.299684
-0.483375,54.280892
-0.484376,54.262104
-0.485377,54.290284
-0.486378,54.2715
-0.487378,54.262104
-0.488379,54.262104
-0.48938,54.255059
-0.490381,54.252712
-0.491381,54.243316
-0.492382,54.23392
-0.493383,54.233924
-0.494384,54.262104
-0.495385,54.224524
-0.496385,54.243316
-0.497386,54.287938
-0.498387,54.33726
-0.499388,54.346652
-0.500388,54.327864
-0.501389,54.346652
-0.50239,54.318468
-0.503391,54.299684
-0.504392,54.299684
-0.505392,54.30203
-0.506393,54.318468
-0.507394,54.290284
-0.508395,54.2715
-0.509395,54.30908
-0.510396,54.290284
-0.511397,54.2715
-0.512398,54.290284
-0.513399,54.262104
-0.514399,54.2715
-0.5154,54.252708
-0.516401,54.243312
-0.517402,54.2715
-0.518402,54.252708
-0.519403,54.280892
-0.520404,54.262104
-0.521405,54.2715
-0.522406,54.23392
-0.523406,54.215132
-0.524407,54.262104
-0.525408,54.252708
-0.526409,54.215132
-0.527409,54.215132
-0.52841,54.23392
-0.529411,54.20574
-0.530412,54.224524
-0.531413,54.233924
-0.532413,54.24332
-0.533414,54.224528
-0.534415,54.243316
-0.535416,54.233924
-0.536416,54.24332
-0.537417,54.224524
-0.538418,54.23392
-0.539419,54.226875
-0.54042,54.224528
-0.54142,54.224528
-0.542421,54.215132
-0.543422,54.20574
-0.544423,54.21748
-0.545423,54.224524
-0.546424,54.175793
-0.547425,54.130584
-0.548426,54.130584
-0.549427,54.13998
-0.550427,54.121188
-0.551428,54.1024
-0.552429,54.093004
-0.55343,54.074216
-0.55443,54.1024
-0.555431,54.083612
-0.556432,54.111792
-0.557433,54.111796
-0.558434,54.1024
-0.559434,54.07422
-0.560435,54.074216
-0.561436,54.093004
-0.562437,54.083612
-0.563437,54.093004
-0.564438,54.083612
-0.565439,54.093004
-0.56644,54.111792
-0.567441,54.1024
-0.568441,54.111792
-0.569442,54.1024
-0.570443,54.083612
-0.571444,54.074216
-0.572444,54.1024
-0.573445,54.1024
-0.574446,54.1024
-0.575447,54.1024
-0.576448,54.1024
-0.577448,54.1024
-0.578449,54.07422
-0.57945,54.111796
-0.580451,54.064816
-0.581451,54.111796
-0.582452,54.093004
-0.583453,54.111796
-0.584454,54.139976
-0.585455,54.093004
-0.586455,54.111792
-0.587456,54.083608
-0.588457,54.111796
-0.589458,54.130584
-0.590458,54.13058
-0.591459,54.13998
-0.59246,54.149372
-0.593461,54.121189
-0.594462,54.1024
-0.595462,54.093004
-0.596463,54.1024
-0.597464,54.107097
-0.598465,54.121188
-0.599465,54.111796
-0.600466,54.13058
-0.601467,54.13058
-0.602468,54.118838
-0.603469,54.111792
-0.604469,54.1276465
-0.60547,54.139976
-0.606471,54.13998
-0.607472,54.139979
-0.608472,54.13998
-0.609473,54.13998
-0.610474,54.13058
-0.611475,54.158764
-0.612476,54.177556
-0.613476,54.16816
-0.614477,54.16816
-0.615478,54.19634
-0.616479,54.177552
-0.617479,54.196344
-0.61848,54.20574
-0.619481,54.186948
-0.620482,54.186948
-0.621483,54.186948
-0.622483,54.20574
-0.623484,54.196344
-0.624485,54.177556
-0.625486,54.19634
-0.626486,54.20574
-0.627487,54.16816
-0.628488,54.149372
-0.629489,54.149372
-0.63049,54.158764
-0.63149,54.205736
-0.632491,54.186952
-0.633492,54.215132
-0.634493,54.215132
-0.635493,54.215132
-0.636494,54.215132
-0.637495,54.196344
-0.638496,54.19634
-0.639497,54.196344
-0.640497,54.215132
-0.641498,54.215132
-0.642499,54.224524
-0.6435,54.224524
-0.6445,54.21748
-0.645501,54.20574
-0.646502,54.215132
-0.647503,54.20574
-0.648504,54.23392
-0.649504,54.243312
-0.650505,54.224524
-0.651506,54.215132
-0.652507,54.233924
-0.653507,54.215132
-0.654508,54.224528
-0.655509,54.20574
-0.65651,54.20574
-0.657511,54.217482
-0.658511,54.215132
-0.659512,54.243316
-0.660513,54.233924
-0.661514,54.2621
-0.662514,54.243312
-0.663515,54.252708
-0.664516,54.243316
-0.665517,54.290284
-0.666518,54.280892
-0.667518,54.262104
-0.668519,54.280896
-0.66952,54.299684
-0.670521,54.290284
-0.671521,54.287938
-0.672522,54.280892
-0.673523,54.280892
-0.674524,54.280892
-0.675525,54.29968
-0.676525,54.290288
-0.677526,54.292634
-0.678527,54.290284
-0.679528,54.290284
-0.680528,54.294982
-0.681529,54.309076
-0.68253,54.290284
-0.683531,54.280892
-0.684532,54.290288
-0.685532,54.318468
-0.686533,54.318472
-0.687534,54.318468
-0.688535,54.318472
-0.689535,54.323167
-0.690536,54.327864
-0.691537,54.327864
-0.692538,54.318471
-0.693539,54.299684
-0.694539,54.318472
-0.69554,54.33726
-0.696541,54.346652
-0.697542,54.318468
-0.698542,54.33726
-0.699543,54.299684
