Voltage [V],Current [uA]
-0.050038896,65.215984
-0.051039672,65.610548
-0.052040452,65.72328
-0.053041232,65.78904
-0.054042008,65.817228
-0.055042784,65.82662
-0.056043564,65.845408
-0.057044344,65.854808
-0.05804512,65.8548
-0.059045896,65.8548
-0.060046676,65.8548
-0.061047452,65.8642
-0.062048232,65.8548
-0.063049012,65.8642
-0.064049788,65.8642
-0.065050564,65.854808
-0.06605134,65.8642
-0.06705212,65.882988
-0.068052896,65.8642
-0.06905368,65.873592
-0.070054456,65.873592
-0.071055232,65.873592
-0.072056008,65.873592
-0.073056784,65.8642
-0.074057568,65.882988
-0.075058344,65.8548
-0.076059128,65.873592
-0.077059904,65.836012
-0.07806068,65.8642
-0.079061456,65.899428
-0.080062232,65.958148
-0.081063008,65.939352
-0.082063784,65.948748
-0.083064568,65.976936
-0.084065344,65.948748
-0.085066128,65.967532
-0.086066904,65.95814
-0.08706768,65.960488
-0.088068456,65.95814
-0.089069232,65.95814
-0.090070008,65.967532
-0.091070792,65.948748
-0.092071568,65.976936
-0.093072344,65.948748
-0.094073128,65.98632
-0.095073904,65.939352
-0.09607468,65.976936
-0.097075456,65.948748
-0.09807624,65.95814
-0.099077016,65.948748
-0.100077792,65.967532
-0.101078568,65.976936
-0.102079344,65.976936
-0.10308012,65.99572
-0.104080904,65.986328
-0.105081688,65.986328
-0.106082464,65.986328
-0.10708324,65.958148
-0.108084016,65.967532
-0.109084792,65.948748
-0.110085568,65.976936
-0.111086344,65.958148
-0.112087128,65.98632
-0.113087904,65.95814
-0.114088688,65.98632
-0.115089464,65.986328
-0.11609024,65.976936
-0.117091016,65.967532
-0.118091792,65.976936
-0.119092576,65.972236
-0.120093352,65.96754
-0.121094128,65.976936
-0.122094904,65.95814
-0.12309568,65.948748
-0.124096464,65.967532
-0.125097248,65.986328
-0.126098024,65.976936
-0.1270988,65.96754
-0.128099576,66.014508
-0.129100352,65.99572
-0.130101128,65.941702
-0.131101904,65.873592
-0.13210268,65.882988
-0.133103464,65.873592
-0.13410424,65.854808
-0.135105,65.8642
-0.136105,65.8548
-0.137106,65.901772
-0.138107,65.8642
-0.139108,65.882988
-0.140108,65.892388
-0.141109,65.873592
-0.14211,65.8642
-0.143111,65.8642
-0.144112,65.868896
-0.145112,65.873592
-0.146113,65.873592
-0.147114,65.873592
-0.148115,65.871244
-0.149115,65.8642
-0.150116,65.873592
-0.151117,65.882988
-0.152118,65.873592
-0.153119,65.882988
-0.154119,65.885335
-0.15512,65.89238
-0.156121,65.89238
-0.157122,65.87829
-0.158122,65.8642
-0.159123,65.8642
-0.160124,65.882988
-0.161125,65.873592
-0.162126,65.882988
-0.163126,65.901772
-0.164127,65.882988
-0.165128,65.901772
-0.166129,65.911172
-0.167129,65.873592
-0.16813,65.89238
-0.169131,65.901772
-0.170132,65.882988
-0.171133,65.911172
-0.172133,65.873592
-0.173134,65.911172
-0.174135,65.901772
-0.17513600000000001,65.89238
-0.176136,65.89238
-0.177137,65.882988
-0.178138,65.89238
-0.179139,65.901772
-0.18014,65.901772
-0.18114,65.913518
-0.182141,65.920568
-0.183142,65.92996
-0.184143,65.882988
-0.185143,65.901772
-0.186144,65.873592
-0.187145,65.911172
-0.188146,65.89238
-0.189147,65.920568
-0.190147,65.901772
-0.191148,65.901772
-0.192149,65.911172
-0.19315,65.901772
-0.19415,65.920568
-0.195151,65.911172
-0.196152,65.901772
-0.197153,65.911172
-0.198154,65.911172
-0.199154,65.901772
-0.200155,65.901772
-0.201156,65.911172
-0.202157,65.92056
-0.203157,65.92056
-0.204158,65.92526
-0.205159,65.92996
-0.20616,65.92996
-0.207161,65.92996
-0.208161,65.920568
-0.209162,65.901772
-0.210163,65.911172
-0.211164,65.920568
-0.212164,65.920568
-0.213165,65.92056
-0.214166,65.92996
-0.215167,65.920568
-0.216168,65.939352
-0.217168,65.920568
-0.218169,65.901772
-0.21917,65.92996
-0.220171,65.939352
-0.221171,65.939352
-0.222172,65.939352
-0.223173,65.939352
-0.224174,65.92996
-0.225175,65.92996
-0.226175,65.939352
-0.227176,65.920568
-0.228177,65.92996
-0.229178,65.92996
-0.230178,65.920568
-0.231179,65.948748
-0.23218,65.911172
-0.233181,65.948748
-0.234182,65.939352
-0.235182,65.941701
-0.236183,65.939352
-0.237184,65.939352
-0.238185,65.948748
-0.239185,65.92996
-0.240186,65.95814
-0.241187,65.92996
-0.242188,65.948748
-0.243189,65.967532
-0.244189,65.939352
-0.24519,65.92996
-0.246191,65.939352
-0.247192,65.958148
-0.248192,65.939352
-0.249193,65.948748
-0.250194,65.948748
-0.251195,65.95814
-0.252196,65.948748
-0.253196,65.95814
-0.254197,65.958148
-0.255198,65.95814
-0.256199,65.960494
-0.257199,65.9587305
-0.2582,65.958148
-0.259201,65.96768763
-0.260202,65.976936
-0.261203,65.976936
-0.262203,65.958148
-0.263204,65.986328
-0.264205,65.95814
-0.265206,65.98632
-0.266206,65.948748
-0.267207,65.986328
-0.268208,65.976936
-0.269209,65.99572
-0.27021,65.948748
-0.27121,66.005112
-0.272211,65.986328
-0.273212,65.976936
-0.274213,65.986328
-0.275213,65.976936
-0.276214,65.99572
-0.277215,65.986328
-0.278216,65.986328
-0.279217,65.99572
-0.280217,65.99572
-0.281218,65.99572
-0.282219,65.958148
-0.28322,65.99572
-0.28422,65.948748
-0.285221,65.967532
-0.286222,65.967532
-0.287223,65.976936
-0.288224,66.035643
-0.289224,66.099052
-0.290225,66.099052
-0.291226,66.096704
-0.292227,66.099052
-0.293227,66.08966
-0.294228,66.12724
-0.295229,66.089668
-0.29623,66.117848
-0.297231,66.13664
-0.298231,66.09906
-0.299232,66.164812
-0.300233,66.09906
-0.301234,66.146028
-0.302234,66.099052
-0.303235,66.13664
-0.304236,66.12724
-0.305237,66.117848
-0.306238,66.136636
-0.307238,66.12724
-0.308239,66.12724
-0.30924,66.13664
-0.310241,66.146028
-0.311241,66.117848
-0.312242,66.13664
-0.313243,66.146028
-0.314244,66.146028
-0.315245,66.146028
-0.316245,66.148378
-0.317246,66.146028
-0.318247,66.155428
-0.319248,66.183608
-0.320248,66.155428
-0.321249,66.16482
-0.32225,66.16482
-0.323251,66.174216
-0.324252,66.183608
-0.325252,66.155428
-0.326253,66.183608
-0.327254,66.155428
-0.328255,66.193
-0.329255,66.183608
-0.330256,66.2024
-0.331257,66.2024
-0.332258,66.221188
-0.333259,66.239976
-0.334259,66.23058
-0.33526,66.242323
-0.336261,66.249368
-0.337262,66.249368
-0.338262,66.249368
-0.339263,66.19535
-0.340264,66.146028
-0.341265,66.136636
-0.342266,66.146036
-0.343266,66.13664
-0.344267,66.146028
-0.345268,66.146033
-0.346269,66.146036
-0.347269,66.155428
-0.34827,66.16482
-0.349271,66.202396
-0.35027200000000003,66.174216
-0.351273,66.221188
-0.352273,66.16482
-0.353274,66.193
-0.354275,66.193
-0.355276,66.221188
-0.356276,66.221188
-0.357277,66.225884
-0.358278,66.23058
-0.359279,66.23058
-0.36028,66.26816
-0.36128,66.221188
-0.362281,66.249368
-0.363282,66.249368
-0.364283,66.268156
-0.365283,66.277556
-0.366284,66.26816
-0.367285,66.305736
-0.368286,66.286948
-0.369287,66.33392
-0.370287,66.29634
-0.371288,66.315136
-0.372289,66.315136
-0.37329,66.326877
-0.37429,66.33392
-0.375291,66.343316
-0.376292,66.371496
-0.377293,66.3621
-0.378294,66.39968
-0.379294,66.390288
-0.380295,66.380896
-0.381296,66.39968
-0.382297,66.418468
-0.383297,66.418468
-0.384298,66.42786
-0.385299,66.446648
-0.3863,66.418468
-0.387301,66.446648
-0.388301,66.456048
-0.389302,66.46544
-0.390303,66.474836
-0.391304,66.493628
-0.392304,66.49362
-0.393305,66.512416
-0.394306,66.512416
-0.395307,66.512416
-0.396308,66.526506
-0.397308,66.540596
-0.398309,66.540596
-0.39931,66.540596
-0.400311,66.578176
-0.401311,66.587568
-0.402312,66.568776
-0.403313,66.568776
-0.404314,66.58522
-0.405315,66.596964
-0.406315,66.606364
-0.407316,66.634544
-0.408317,66.615748
-0.409318,66.643936
-0.410318,66.634544
-0.411319,66.643936
-0.41232,66.653328
-0.413321,66.662724
-0.414322,66.653328
-0.415322,66.690908
-0.416323,66.672124
-0.417324,66.700304
-0.418325,66.681516
-0.419325,66.700296
-0.420326,66.709696
-0.421327,66.707346
-0.422328,66.709696
-0.423329,66.6997145
-0.424329,66.690908
-0.42533,66.690908
-0.426331,66.719088
-0.427332,66.709696
-0.428332,66.728484
-0.429333,66.728484
-0.430334,66.728484
-0.431335,66.728484
-0.432336,66.733184
-0.433336,66.737884
-0.434337,66.737884
-0.435338,66.747268
-0.436339,66.747276
-0.437339,66.747268
-0.43834,66.766064
-0.439341,66.747268
-0.440342,66.766064
-0.441343,66.728484
-0.442343,66.747276
-0.443344,66.747276
-0.444345,66.747276
-0.445346,66.747274
-0.446346,66.747268
-0.447347,66.7425775
-0.448348,66.737884
-0.449349,66.737884
-0.45035,66.74023
-0.45135,66.737884
-0.452351,66.747268
-0.453352,66.728484
-0.454353,66.747268
-0.455353,66.709696
-0.456354,66.737876
-0.457355,66.719088
-0.458356,66.747268
-0.459357,66.728484
-0.460357,66.728484
-0.461358,66.719088
-0.462359,66.719088
-0.46336,66.719088
-0.46436,66.709695
-0.465361,66.709696
-0.466362,66.690908
-0.467363,66.690908
-0.468364,66.662724
-0.469364,66.681508
-0.470365,66.662724
-0.471366,66.653328
-0.472367,66.653328
-0.473367,66.653328
-0.474368,66.643936
-0.475369,66.643936
-0.47637,66.643936
-0.477371,66.632192
-0.478371,66.615748
-0.479372,66.625148
-0.480373,66.625148
-0.481374,66.606356
-0.482374,66.568784
-0.483375,66.606364
-0.484376,66.625148
-0.485377,66.587568
-0.486378,66.587568
-0.487378,66.55938
-0.488379,66.568784
-0.48938,66.540596
-0.490381,66.559388
-0.491381,66.540596
-0.492382,66.559388
-0.493383,66.512416
-0.494384,66.540596
-0.495385,66.521808
-0.496385,66.5312
-0.497386,66.582871
-0.498387,66.625148
-0.499388,66.653328
-0.500388,66.606364
-0.501389,66.634544
-0.50239,66.596964
-0.503391,66.606356
-0.504392,66.634544
-0.505392,66.625148
-0.506393,66.578176
-0.507394,66.568776
-0.508395,66.615748
-0.509395,66.578176
-0.510396,66.596964
-0.511397,66.615748
-0.512398,66.587568
-0.513399,66.596964
-0.514399,66.568784
-0.5154,66.568784
-0.516401,66.56878
-0.517402,66.568776
-0.518402,66.568776
-0.519403,66.557034
-0.520404,66.540596
-0.521405,66.549988
-0.522406,66.538246
-0.523406,66.5312
-0.524407,66.5312
-0.525408,66.5312
-0.526409,66.5312
-0.527409,66.528852
-0.52841,66.5312
-0.529411,66.521808
-0.530412,66.512416
-0.531413,66.503016
-0.532413,66.484228
-0.533414,66.49362
-0.534415,66.503016
-0.535416,66.503024
-0.536416,66.503016
-0.537417,66.493624
-0.538418,66.484228
-0.539419,66.484228
-0.54042,66.512416
-0.54142,66.474836
-0.542421,66.503016
-0.543422,66.484228
-0.544423,66.49362
-0.545423,66.46544
-0.546424,66.404375
-0.547425,66.33392
-0.548426,66.32452
-0.549427,66.352708
-0.550427,66.33392
-0.551428,66.343308
-0.552429,66.32452
-0.55343,66.371496
-0.55443,66.343316
-0.555431,66.3621
-0.556432,66.33392
-0.557433,66.33392
-0.558434,66.352708
-0.559434,66.315136
-0.560435,66.3621
-0.561436,66.315136
-0.562437,66.352708
-0.563437,66.32452
-0.564438,66.352708
-0.565439,66.33392
-0.56644,66.343316
-0.567441,66.352708
-0.568441,66.32452
-0.569442,66.343316
-0.570443,66.352708
-0.571444,66.352708
-0.572444,66.33392
-0.573445,66.324528
-0.574446,66.343316
-0.575447,66.352708
-0.576448,66.345664
-0.577448,66.343316
-0.578449,66.343316
-0.57945,66.348012
-0.580451,66.352708
-0.581451,66.352708
-0.582452,66.33392
-0.583453,66.3621
-0.584454,66.33392
-0.585455,66.343316
-0.586455,66.345663
-0.587456,66.352708
-0.588457,66.352708
-0.589458,66.343316
-0.590458,66.352708
-0.591459,66.3621
-0.59246,66.3621
-0.593461,66.3621
-0.594462,66.371496
-0.595462,66.343316
-0.596463,66.371496
-0.597464,66.380896
-0.598465,66.3621
-0.599465,66.352708
-0.600466,66.371496
-0.601467,66.39028
-0.602468,66.39968
-0.603469,66.3621
-0.604469,66.380896
-0.60547,66.39968
-0.606471,66.3621
-0.607472,66.390288
-0.608472,66.371496
-0.609473,66.371496
-0.610474,66.39028
-0.611475,66.39028
-0.612476,66.380896
-0.613476,66.3621
-0.614477,66.3621
-0.615478,66.3621
-0.616479,66.369148
-0.617479,66.380896
-0.61848,66.371496
-0.619481,66.39968
-0.620482,66.39968
-0.621483,66.39968
-0.622483,66.402029
-0.623484,66.39968
-0.624485,66.40026725
-0.625486,66.39968
-0.626486,66.39968
-0.627487,66.39968
-0.628488,66.39968
-0.629489,66.39968
-0.63049,66.39968
-0.63149,66.409076
-0.632491,66.418468
-0.633492,66.380896
-0.634493,66.390288
-0.635493,66.3621
-0.636494,66.380888
-0.637495,66.427868
-0.638496,66.39968
-0.639497,66.409076
-0.640497,66.42786
-0.641498,66.437256
-0.642499,66.420816
-0.6435,66.39968
-0.6445,66.418468
-0.645501,66.418468
-0.646502,66.418468
-0.647503,66.446656
-0.648504,66.418468
-0.649504,66.437256
-0.650505,66.437256
-0.651506,66.437256
-0.652507,66.439606
-0.653507,66.437256
-0.654508,66.446656
-0.655509,66.42786
-0.65651,66.446656
-0.657511,66.42786
-0.658511,66.437256
-0.659512,66.446648
-0.660513,66.46544
-0.661514,66.46544
-0.662514,66.456048
-0.663515,66.446656
-0.664516,66.45604
-0.665517,66.484228
-0.666518,66.484228
-0.667518,66.472486
-0.668519,66.46544
-0.66952,66.456048
-0.670521,66.493628
-0.671521,66.474836
-0.672522,66.49362
-0.673523,66.484228
-0.674524,66.512416
-0.675525,66.512416
-0.676525,66.498322
-0.677526,66.484228
-0.678527,66.484228
-0.679528,66.484228
-0.680528,66.512416
-0.681529,66.484228
-0.68253,66.503024
-0.683531,66.484228
-0.684532,66.503024
-0.685532,66.493628
-0.686533,66.503016
-0.687534,66.503024
-0.688535,66.512416
-0.689535,66.512416
-0.690536,66.521808
-0.691537,66.503024
-0.692538,66.484228
-0.693539,66.46544
-0.694539,66.49362
-0.69554,66.493628
-0.696541,66.46544
-0.697542,66.484228
-0.698542,66.46544
-0.699543,66.49362
